2H(12C,1p)13C @114.000 MeV (E*ejec = 0.000 / E*rec = 0.000)
Ejectile Lab Angle (deg.)    Ejectile Lab Energy (MeV)    C.M. Angle (deg.)    Recoil Lab Angle (deg.)    Recoil Lab Energy ( MeV)
0                            47.3069                      -0.00450397          0.000299632                69.4148                 
1                            47.2792                      1.64378              0.232244                   69.4426                 
2                            47.2514                      3.29206              0.464189                   69.4703                 
3                            47.2052                      4.93888              0.695535                   69.5166                 
4                            47.1405                      6.58491              0.925985                   69.5812                 
5                            47.0574                      8.23052              1.15524                    69.6644                 
6                            46.9561                      9.87532              1.38302                    69.7657                 
7                            46.8365                      11.5193              1.60903                    69.8852                 
8                            46.6991                      13.1624              1.83299                    70.0226                 
9                            46.5437                      14.8043              2.05462                    70.1781                 
10                           46.3707                      16.445               2.27366                    70.3511                 
11                           46.1802                      18.0845              2.48985                    70.5416                 
12                           45.9725                      19.7224              2.70293                    70.7493                 
13                           45.7476                      21.3587              2.91266                    70.9741                 
14                           45.506                       22.9933              3.11879                    71.2157                 
15                           45.2481                      24.6259              3.32112                    71.4737                 
16                           44.9738                      26.2566              3.51942                    71.748                  
17                           44.6836                      27.885               3.71349                    72.0382                 
18                           44.3778                      29.5111              3.90313                    72.3439                 
19                           44.0569                      31.1347              4.08817                    72.6649                 
20                           43.721                       32.7558              4.26843                    73.0007                 
21                           43.3707                      34.3741              4.44375                    73.351                  
22                           43.0064                      35.9895              4.614                      73.7154                 
23                           42.6282                      37.6019              4.77903                    74.0935                 
24                           42.2368                      39.211               4.93872                    74.4849                 
25                           41.8325                      40.8169              5.09295                    74.8892                 
26                           41.4159                      42.4192              5.24165                    75.3059                 
27                           40.9872                      44.0178              5.38472                    75.7345                 
28                           40.5472                      45.6126              5.52208                    76.1745                 
29                           40.096                       47.2035              5.65366                    76.6258                 
30                           39.6343                      48.7902              5.77942                    77.0874                 
31                           39.1626                      50.3727              5.89933                    77.5591                 
32                           38.6814                      51.9507              6.01335                    78.0403                 
33                           38.1911                      53.524               6.12145                    78.5306                 
34                           37.6923                      55.0926              6.22364                    79.0294                 
35                           37.1856                      56.6562              6.31992                    79.5362                 
36                           36.6713                      58.2146              6.41029                    80.0504                 
37                           36.15                        59.7678              6.49477                    80.5717                 
38                           35.6225                      61.3154              6.57342                    81.0993                 
39                           35.089                       62.8574              6.64625                    81.6328                 
40                           34.5501                      64.3936              6.71331                    82.1717                 
41                           34.0064                      65.9237              6.77466                    82.7153                 
42                           33.4585                      67.4476              6.83037                    83.2633                 
43                           32.9069                      68.9651              6.88051                    83.8149                 
44                           32.3519                      70.4759              6.92512                    84.3699                 
45                           31.7943                      71.98                6.96433                    84.9274                 
46                           31.2345                      73.4771              6.9982                     85.4872                 
47                           30.6732                      74.9671              7.02684                    86.0486                 
48                           30.1107                      76.4496              7.05035                    86.6111                 
49                           29.5475                      77.9246              7.06882                    87.1742                 
50                           28.9844                      79.3917              7.08238                    87.7374                 
51                           28.4214                      80.8509              7.0911                     88.3003                 
52                           27.8595                      82.3019              7.09515                    88.8622                 
53                           27.2988                      83.7445              7.09461                    89.4229                 
54                           26.74                        85.1784              7.08963                    89.9817                 
55                           26.1835                      86.6035              7.08032                    90.5382                 
56                           25.6296                      88.0196              7.06681                    91.0921                 
57                           25.0789                      89.4265              7.04922                    91.6428                 
58                           24.5317                      90.8238              7.02771                    92.19                   
59                           23.9886                      92.2115              7.00241                    92.7331                 
60                           23.4499                      93.5894              6.97343                    93.2719                 
61                           22.9158                      94.9571              6.94092                    93.8059                 
62                           22.3869                      96.3145              6.90502                    94.3348                 
63                           21.8635                      97.6614              6.86587                    94.8582                 
64                           21.3459                      98.9975              6.82361                    95.3758                 
65                           20.8343                      100.323              6.77835                    95.8874                 
66                           20.3293                      101.637              6.73027                    96.3925                 
67                           19.8308                      102.94               6.67946                    96.8909                 
68                           19.3395                      104.231              6.62611                    97.3822                 
69                           18.8553                      105.51               6.5703                     97.8665                 
70                           18.3786                      106.778              6.51221                    98.3431                 
71                           17.9096                      108.033              6.45195                    98.8122                 
72                           17.4484                      109.276              6.38964                    99.2733                 
73                           16.9953                      110.507              6.32542                    99.7265                 
74                           16.5504                      111.725              6.25944                    100.171                 
75                           16.1139                      112.93               6.19181                    100.608                 
76                           15.686                       114.122              6.12265                    101.036                 
77                           15.2665                      115.301              6.05206                    101.455                 
78                           14.8558                      116.467              5.98019                    101.866                 
79                           14.4539                      117.62               5.90715                    102.268                 
80                           14.0609                      118.759              5.83305                    102.661                 
81                           13.6767                      119.884              5.75798                    103.045                 
82                           13.3015                      120.996              5.68208                    103.42                  
83                           12.9351                      122.093              5.60541                    103.787                 
84                           12.5776                      123.177              5.5281                     104.144                 
85                           12.2291                      124.247              5.45025                    104.493                 
86                           11.8896                      125.303              5.37197                    104.832                 
87                           11.5588                      126.345              5.2933                     105.163                 
88                           11.2368                      127.373              5.21435                    105.485                 
89                           10.9234                      128.387              5.13519                    105.798                 
90                           10.6187                      129.387              5.0559                     106.103                 
91                           10.3226                      130.372              4.97659                    106.399                 
92                           10.035                       131.344              4.89731                    106.687                 
93                           9.75564                      132.301              4.81812                    106.966                 
94                           9.48448                      133.244              4.73906                    107.237                 
95                           9.22148                      134.174              4.66025                    107.5                   
96                           8.96644                      135.089              4.5817                     107.755                 
97                           8.71912                      135.991              4.50344                    108.003                 
98                           8.47951                      136.879              4.42558                    108.242                 
99                           8.24752                      137.753              4.34815                    108.474                 
100                          8.02281                      138.613              4.27116                    108.699                 
101                          7.80536                      139.46               4.19468                    108.916                 
102                          7.59497                      140.294              4.11874                    109.127                 
103                          7.39141                      141.115              4.04334                    109.33                  
104                          7.19467                      141.923              3.96857                    109.527                 
105                          7.00453                      142.717              3.89444                    109.717                 
106                          6.82066                      143.5                3.82092                    109.901                 
107                          6.64306                      144.269              3.74808                    110.079                 
108                          6.4715                       145.026              3.67592                    110.25                  
109                          6.30576                      145.771              3.60444                    110.416                 
110                          6.14595                      146.504              3.53374                    110.576                 
111                          5.99152                      147.226              3.4637                     110.73                  
112                          5.84257                      147.935              3.39443                    110.879                 
113                          5.69888                      148.634              3.32591                    111.023                 
114                          5.56022                      149.321              3.25813                    111.162                 
115                          5.42649                      149.997              3.1911                     111.295                 
116                          5.29746                      150.662              3.1248                     111.424                 
117                          5.17312                      151.317              3.05928                    111.549                 
118                          5.05327                      151.962              2.99451                    111.668                 
119                          4.93767                      152.596              2.93047                    111.784                 
120                          4.82632                      153.221              2.8672                     111.895                 
121                          4.719                        153.836              2.80466                    112.003                 
122                          4.61559                      154.441              2.74286                    112.106                 
123                          4.51588                      155.038              2.68176                    112.206                 
124                          4.41998                      155.625              2.62142                    112.302                 
125                          4.32743                      156.204              2.56174                    112.394                 
126                          4.23846                      156.774              2.50281                    112.483                 
127                          4.15274                      157.335              2.44455                    112.569                 
128                          4.07015                      157.889              2.38696                    112.652                 
129                          3.9907                       158.434              2.33005                    112.731                 
130                          3.91416                      158.972              2.27378                    112.808                 
131                          3.84053                      159.503              2.21817                    112.881                 
132                          3.7697                       160.026              2.1632                     112.952                 
133                          3.70155                      160.542              2.10884                    113.02                  
134                          3.63597                      161.051              2.05509                    113.086                 
135                          3.57286                      161.554              2.00191                    113.149                 
136                          3.51221                      162.05               1.94933                    113.21                  
137                          3.45391                      162.54               1.89731                    113.268                 
138                          3.39774                      163.024              1.84581                    113.324                 
139                          3.34391                      163.502              1.79489                    113.378                 
140                          3.2921                       163.974              1.74446                    113.43                  
141                          3.24242                      164.44               1.69457                    113.479                 
142                          3.19463                      164.902              1.64514                    113.527                 
143                          3.14886                      165.358              1.59623                    113.573                 
144                          3.10489                      165.809              1.54776                    113.617                 
145                          3.0627                       166.255              1.49974                    113.659                 
146                          3.02219                      166.697              1.45214                    113.7                   
147                          2.98347                      167.134              1.405                      113.738                 
148                          2.94632                      167.567              1.35824                    113.775                 
149                          2.91084                      167.996              1.3119                     113.811                 
150                          2.87682                      168.421              1.26592                    113.845                 
151                          2.84437                      168.842              1.22033                    113.877                 
152                          2.81337                      169.259              1.17509                    113.908                 
153                          2.78372                      169.673              1.13017                    113.938                 
154                          2.75552                      170.083              1.0856                     113.966                 
155                          2.72855                      170.49               1.04131                    113.993                 
156                          2.70303                      170.894              0.997363                   114.019                 
157                          2.67864                      171.295              0.953669                   114.043                 
158                          2.65558                      171.693              0.910269                   114.066                 
159                          2.63376                      172.089              0.867133                   114.088                 
160                          2.61317                      172.482              0.824253                   114.109                 
161                          2.59359                      172.872              0.781585                   114.128                 
162                          2.57523                      173.261              0.739156                   114.147                 
163                          2.558                        173.647              0.696939                   114.164                 
164                          2.54188                      174.031              0.654924                   114.18                  
165                          2.52689                      174.413              0.613102                   114.195                 
166                          2.51279                      174.794              0.571435                   114.209                 
167                          2.4998                       175.172              0.529941                   114.222                 
168                          2.48794                      175.55               0.488608                   114.234                 
169                          2.47697                      175.926              0.447402                   114.245                 
170                          2.46701                      176.3                0.406325                   114.255                 
171                          2.45806                      176.674              0.365365                   114.264                 
172                          2.45                         177.046              0.324504                   114.272                 
173                          2.44306                      177.418              0.283745                   114.279                 
174                          2.43691                      177.789              0.243057                   114.285                 
175                          2.43187                      178.159              0.202446                   114.29                  
176                          2.42761                      178.529              0.161886                   114.294                 
177                          2.42437                      178.899              0.121374                   114.297                 
178                          2.42213                      179.27               0.0808988                  114.3                   
179                          2.42067                      179.644              0.0404432                  114.301                 
180                          -1e+06                       -1e+06               -1e+06                     -1e+06                  
