 strip / Counts 1 / 2 / 3  
0 0 0 0
1 786.078 818.184 702.698
2 740.216 799.619 668.115
3 815.847 822.775 657.99
4 767.376 805.392 665.379
5 807.415 844.601 671.275
6 833.29 882.167 754.293
7 901.557 938.659 757.956
8 917.263 954.668 788.688
9 909.93 952.056 791.23
10 873.593 900.745 773.283
11 921.67 951.191 792.368
12 907.959 952.048 798.509
13 790.472 819.623 659.958
14 695.242 709.086 616.357
15 481.86 467.183 398.839
16 651.457 690.537 585.461
17 711.222 708.444 645.09
18 716.086 754.916 632.858
19 743.317 798.752 639.841
20 743.317 798.752 639.841
21 792.006 855.92 725.572
22 821.733 848.842 729.004
23 862.154 893.161 784.298
24 900.782 937.331 770.729
25 883.64 962.624 737.576
26 885.592 930.017 783.758
27 884.546 901.082 781.173
28 884.288 956.846 795.612
29 779.625 832.506 696.445
30 627.477 672.821 560.759
31 437.627 421.396 363.852
32 662.229 658.369 557.948
33 718.661 760.743 613.473
34 717.155 756.687 643.647
35 796.543 776.383 633.986
36 790.887 772.288 653.088
37 855.737 891.744 726.375
38 820.008 840.354 706.882
39 887.823 970.826 794.992
40 910.404 950.21 782.997
41 895.177 932.677 781.686
42 908.076 988.264 776.542
43 861.109 922.64 802.138
44 856.753 884.475 754.335
45 820.411 831.055 714.676
46 703.61 702.715 580.15
47 434.333 462.083 392.47
48 683.972 656.971 581.676
49 700.681 724.899 600.04
50 715.527 762.17 646.427
51 722.709 740.748 601.631
52 800.834 817.732 683.131
53 798.097 842.492 709.898
54 817.021 846.96 727.096
55 817.021 846.96 727.096
56 861.458 872.102 747.762
57 838.21 876.901 764.32
58 885.241 887.777 746.729
59 874.318 912.897 753.753
60 831.731 883.327 738.805
61 785.203 819.854 691.295
62 610.839 611.507 531.105
63 411.805 421.102 337.682
64 675.122 679.928 543.097
65 671.111 704.908 592.535
66 680.854 726.318 607.834
67 756.605 793.412 657.168
68 758.499 800.645 659.767
69 762.874 828.697 671.586
70 819.012 837.175 691.069
71 790.892 849.686 656.011
72 843.017 863.824 728.672
73 864.34 905.468 732.437
74 861.532 873.513 742.357
75 828.827 915.06 735.851
76 859.81 911.452 759.66
77 743.095 736.573 659.041
78 625.301 635.321 549.795
79 408.931 412.371 353.964
80 632.706 629.674 530.645
81 697.87 722.183 622.813
82 748.237 749.601 625.241
83 729.369 796.92 679.659
84 753.151 777.271 635.148
85 788.98 811.799 708.952
86 799.301 874.194 707.876
87 795.205 829.354 722.493
88 792.452 860.803 714.143
89 778.676 840 703.524
90 813.286 841.389 736.154
91 816.557 861.94 734.299
92 846.939 873.21 729.756
93 728.227 747.923 621.578
94 585.732 615.968 523.144
95 404.339 411.32 357.583
96 619.287 655.797 534.228
97 661.558 705.811 569.111
98 689.413 715.434 573.4
99 733.53 811.456 662.539
100 739.983 778.423 630.231
101 768.114 784.37 628.515
102 790.881 810.912 656.573
103 811.845 835.521 696.515
104 796.792 870.189 717.594
105 788.355 811.173 670.176
106 821.508 846.532 708.781
107 824.646 839.258 704.496
108 805.134 833.342 713.552
109 742.467 773.852 616.471
110 596.288 621.855 508.959
111 405.125 410.37 361.015
112 627.336 664.74 564.184
113 686.627 713.474 595.744
114 746.783 762.652 631.374
115 746.904 785.768 643.193
116 761.718 779.496 652.795
117 802.163 822.737 659.975
118 786.002 833.988 705.951
119 802.579 861.015 714.878
120 821.762 866.797 693.967
121 816.183 826.369 706.007
122 812.776 833.689 706.125
123 830.267 859.968 739.448
124 862.616 872.043 751.329
125 733.042 766.044 637.312
126 623.305 639.525 545.663
127 623.305 639.525 545.663
