 strip / Counts 1 / 2 / 3  
0 601.106 642.902 546.505
1 484.554 549.056 521.486
2 476.305 491.16 462.01
3 492.203 525.512 428.118
4 445.64 490.681 470.953
5 400.623 442.565 410.702
6 363.955 384.155 351.989
7 363.123 396.792 358.902
8 327.835 339.946 308.856
9 284.096 300.876 279.431
10 244.459 257.322 250.538
11 215.988 248.926 220.26
12 213.509 238.796 226.269
13 175.407 181.906 167.897
14 148.296 157.123 138.197
15 92.6535 103.101 73.9443
16 299.322 348.078 298.269
17 277.69 315.145 246.52
18 276.791 283.186 250.528
19 223.759 256.424 202.378
20 235.077 257.14 240.387
21 190.878 219.885 184.623
22 176.73 197.41 156.175
23 166.428 175.349 160.382
24 148.406 166.251 152.044
25 127.061 142.474 129.455
26 141.376 147.036 134.115
27 109.373 109.922 107.38
28 96.8196 105.521 95.8132
29 79.9778 83.8017 79.7176
30 56.9979 67.8394 60.414
31 33.2124 29.4776 32.6414
32 287.27 285.107 247.553
33 253.582 269.269 220.64
34 214.133 226.582 196.51
35 207.373 217.556 216.456
36 185.838 201.611 179.729
37 168.438 169.189 151.749
38 160.378 183.698 148.143
39 153.475 150.398 129.222
40 130.553 147.298 128.677
41 114.255 125.887 112.675
42 116.145 113.551 95.6985
43 102.534 107.735 95.5628
44 80.7939 96.0019 83.5595
45 67.1045 61.5155 65.3048
46 41.0114 41.6465 46.219
47 24.9703 21.7372 26.5695
48 410.057 497.34 422.5
49 367.561 378.272 365.187
50 370.226 392.236 329.463
51 301.093 321.018 282.029
52 323.137 316.68 264.538
53 245.84 271.781 239.089
54 244.018 270.002 230.584
55 212.429 253.808 227.717
56 190.406 214.37 182.678
57 187.241 210.328 190.658
58 161.413 166.7 158.732
59 135.796 165.715 151.833
60 128.501 136.944 134.233
61 94.5601 108.359 91.5639
62 76.8546 81.3399 76.0325
63 44.9184 42.886 41.2304
64 1268.12 1395.6 1255.09
65 1174.15 1334.18 1105.2
66 1152.4 1292.94 1159.08
67 992.355 1097.34 999.137
68 987.15 1015.73 903.15
69 856.04 1012.37 864.44
70 757.611 877.128 790.465
71 687.476 792.963 671.741
72 589.311 661.686 624.997
73 426.552 504.004 438.149
74 429.08 466.62 446.957
75 335.992 382.744 338.958
76 298.4 330.391 316.83
77 234.396 264.675 253.956
78 170.814 177.894 167.2
79 102.62 109.73 103.783
80 8262.67 8910.96 7664.98
81 9250.61 10247.5 8612.45
82 1081.61 1246.2 1028.62
83 9728.76 1.00761e+06 9652.81
84 10028.8 10579.5 9229.41
85 9357.46 10060.6 8662.25
86 9478 10372.4 9040.73
87 8043.08 8786.38 7709.26
88 7342.56 7907.91 7014.8
89 5511.17 6040.89 5179.94
90 5542.72 5969.76 5352.97
91 4692.49 5181.27 4510.54
92 3761.75 4068.11 3498.43
93 2892.93 3191.73 2862.25
94 2004.52 2164.36 1870.65
95 1198.67 1316.06 1094.47
96 1198.67 1316.06 1094.47
97 16652 17651.3 14804.3
98 18661.2 19561.3 16577.5
99 19579 20629.6 17652.7
100 19279.3 20726.9 17536.8
101 19459.9 20486.8 17590.4
102 17535 18573.7 15843.2
103 16578.8 17607.9 14954.9
104 13801.7 14594.7 12509.1
105 11576.5 12355.9 10450.9
106 11576.5 12355.9 10450.9
107 8123.09 8827.67 7484.91
108 6908.31 7443.81 6228.43
109 5504.57 5807.87 4881.48
110 3701.07 3853.87 3317.5
111 2008.91 2151.31 1775.3
112 1831.49 1988.78 1768.58
113 1864.21 2047.67 1815.14
114 1840.44 1992.03 1762.83
115 1772.28 1959.98 1814.79
116 1678.78 1875.29 1744.86
117 1657 1785.05 1634.9
118 1463.15 1581.92 1461.72
119 1327.7 1495.86 1426.65
120 1235.82 1312.47 1241.82
121 1143.26 1228.38 1163.13
122 1006.84 1107.62 1008.76
123 922.342 949.191 909.29
124 894.984 948.617 905.47
125 656.787 698.114 686.631
126 520.458 568.233 542.373
127 337.295 368.047 287.956
